Storage 023105 PM - RawData - C:\Documents and Settings\mcneill\My Documents\Louis\Perylene Red\041911\File 110419 023105 PM.spc
Wavelength nm.,Abs.
300.00,0.715
300.50,0.695
301.00,0.675
301.50,0.656
302.00,0.633
302.50,0.612
303.00,0.594
303.50,0.575
304.00,0.556
304.50,0.539
305.00,0.524
305.50,0.506
306.00,0.495
306.50,0.480
307.00,0.465
307.50,0.451
308.00,0.441
308.50,0.429
309.00,0.418
309.50,0.405
310.00,0.394
310.50,0.383
311.00,0.373
311.50,0.362
312.00,0.353
312.50,0.347
313.00,0.338
313.50,0.328
314.00,0.322
314.50,0.313
315.00,0.304
315.50,0.298
316.00,0.294
316.50,0.287
317.00,0.282
317.50,0.275
318.00,0.272
318.50,0.267
319.00,0.262
319.50,0.259
320.00,0.254
320.50,0.251
321.00,0.247
321.50,0.244
322.00,0.239
322.50,0.237
323.00,0.235
323.50,0.230
324.00,0.226
324.50,0.226
325.00,0.222
325.50,0.219
326.00,0.217
326.50,0.213
327.00,0.209
327.50,0.205
328.00,0.204
328.50,0.198
329.00,0.199
329.50,0.197
330.00,0.197
330.50,0.192
331.00,0.192
331.50,0.188
332.00,0.186
332.50,0.185
333.00,0.184
333.50,0.182
334.00,0.181
334.50,0.177
335.00,0.176
335.50,0.173
336.00,0.172
336.50,0.170
337.00,0.169
337.50,0.166
338.00,0.164
338.50,0.164
339.00,0.163
339.50,0.160
340.00,0.161
340.50,0.157
341.00,0.157
341.50,0.157
342.00,0.157
342.50,0.155
343.00,0.155
343.50,0.151
344.00,0.149
344.50,0.146
345.00,0.146
345.50,0.145
346.00,0.145
346.50,0.142
347.00,0.141
347.50,0.139
348.00,0.139
348.50,0.138
349.00,0.137
349.50,0.135
350.00,0.132
350.50,0.132
351.00,0.133
351.50,0.129
352.00,0.132
352.50,0.133
353.00,0.129
353.50,0.125
354.00,0.125
354.50,0.125
355.00,0.124
355.50,0.125
356.00,0.124
356.50,0.121
357.00,0.122
357.50,0.122
358.00,0.122
358.50,0.118
359.00,0.118
359.50,0.120
360.00,0.118
360.50,0.120
361.00,0.119
361.50,0.117
362.00,0.117
362.50,0.117
363.00,0.115
363.50,0.115
364.00,0.117
364.50,0.117
365.00,0.117
365.50,0.116
366.00,0.115
366.50,0.113
367.00,0.112
367.50,0.112
368.00,0.110
368.50,0.110
369.00,0.111
369.50,0.110
370.00,0.107
370.50,0.108
371.00,0.108
371.50,0.106
372.00,0.105
372.50,0.105
373.00,0.106
373.50,0.105
374.00,0.105
374.50,0.106
375.00,0.106
375.50,0.107
376.00,0.105
376.50,0.105
377.00,0.105
377.50,0.106
378.00,0.105
378.50,0.107
379.00,0.107
379.50,0.108
380.00,0.108
380.50,0.108
381.00,0.109
381.50,0.110
382.00,0.112
382.50,0.110
383.00,0.112
383.50,0.113
384.00,0.114
384.50,0.115
385.00,0.117
385.50,0.119
386.00,0.120
386.50,0.121
387.00,0.123
387.50,0.124
388.00,0.126
388.50,0.129
389.00,0.131
389.50,0.132
390.00,0.134
390.50,0.136
391.00,0.138
391.50,0.141
392.00,0.143
392.50,0.146
393.00,0.148
393.50,0.151
394.00,0.153
394.50,0.156
395.00,0.159
395.50,0.162
396.00,0.165
396.50,0.169
397.00,0.172
397.50,0.175
398.00,0.179
398.50,0.183
399.00,0.185
399.50,0.189
400.00,0.193
400.50,0.197
401.00,0.200
401.50,0.204
402.00,0.207
402.50,0.212
403.00,0.215
403.50,0.219
404.00,0.223
404.50,0.227
405.00,0.231
405.50,0.236
406.00,0.241
406.50,0.245
407.00,0.251
407.50,0.255
408.00,0.258
408.50,0.263
409.00,0.267
409.50,0.273
410.00,0.278
410.50,0.282
411.00,0.287
411.50,0.292
412.00,0.297
412.50,0.301
413.00,0.306
413.50,0.311
414.00,0.316
414.50,0.322
415.00,0.327
415.50,0.332
416.00,0.336
416.50,0.342
417.00,0.347
417.50,0.352
418.00,0.357
418.50,0.361
419.00,0.366
419.50,0.372
420.00,0.375
420.50,0.380
421.00,0.385
421.50,0.389
422.00,0.393
422.50,0.397
423.00,0.401
423.50,0.405
424.00,0.408
424.50,0.412
425.00,0.415
425.50,0.419
426.00,0.422
426.50,0.425
427.00,0.427
427.50,0.430
428.00,0.433
428.50,0.436
429.00,0.438
429.50,0.440
430.00,0.442
430.50,0.444
431.00,0.447
431.50,0.448
432.00,0.450
432.50,0.452
433.00,0.454
433.50,0.455
434.00,0.457
434.50,0.458
435.00,0.459
435.50,0.461
436.00,0.461
436.50,0.462
437.00,0.463
437.50,0.463
438.00,0.464
438.50,0.464
439.00,0.465
439.50,0.465
440.00,0.465
440.50,0.464
441.00,0.464
441.50,0.463
442.00,0.462
442.50,0.461
443.00,0.458
443.50,0.457
444.00,0.454
444.50,0.452
445.00,0.449
445.50,0.446
446.00,0.443
446.50,0.438
447.00,0.435
447.50,0.430
448.00,0.425
448.50,0.420
449.00,0.414
449.50,0.409
450.00,0.404
450.50,0.397
451.00,0.391
451.50,0.385
452.00,0.379
452.50,0.372
453.00,0.365
453.50,0.358
454.00,0.351
454.50,0.344
455.00,0.337
455.50,0.329
456.00,0.322
456.50,0.315
457.00,0.307
457.50,0.301
458.00,0.294
458.50,0.287
459.00,0.281
459.50,0.274
460.00,0.267
460.50,0.262
461.00,0.256
461.50,0.249
462.00,0.245
462.50,0.239
463.00,0.234
463.50,0.230
464.00,0.225
464.50,0.221
465.00,0.217
465.50,0.214
466.00,0.211
466.50,0.208
467.00,0.206
467.50,0.204
468.00,0.203
468.50,0.202
469.00,0.201
469.50,0.201
470.00,0.200
470.50,0.201
471.00,0.201
471.50,0.203
472.00,0.204
472.50,0.206
473.00,0.207
473.50,0.209
474.00,0.212
474.50,0.214
475.00,0.216
475.50,0.219
476.00,0.223
476.50,0.226
477.00,0.229
477.50,0.233
478.00,0.236
478.50,0.240
479.00,0.244
479.50,0.248
480.00,0.252
480.50,0.256
481.00,0.260
481.50,0.264
482.00,0.268
482.50,0.272
483.00,0.277
483.50,0.281
484.00,0.285
484.50,0.289
485.00,0.293
485.50,0.297
486.00,0.301
486.50,0.304
487.00,0.308
487.50,0.312
488.00,0.315
488.50,0.319
489.00,0.322
489.50,0.326
490.00,0.329
490.50,0.333
491.00,0.336
491.50,0.339
492.00,0.343
492.50,0.345
493.00,0.349
493.50,0.352
494.00,0.355
494.50,0.359
495.00,0.362
495.50,0.366
496.00,0.369
496.50,0.373
497.00,0.378
497.50,0.381
498.00,0.386
498.50,0.390
499.00,0.395
499.50,0.400
500.00,0.405
500.50,0.410
501.00,0.416
501.50,0.422
502.00,0.429
502.50,0.435
503.00,0.442
503.50,0.450
504.00,0.457
504.50,0.465
505.00,0.473
505.50,0.483
506.00,0.491
506.50,0.501
507.00,0.511
507.50,0.521
508.00,0.531
508.50,0.541
509.00,0.552
509.50,0.563
510.00,0.574
510.50,0.585
511.00,0.596
511.50,0.608
512.00,0.619
512.50,0.631
513.00,0.643
513.50,0.654
514.00,0.666
514.50,0.678
515.00,0.690
515.50,0.702
516.00,0.713
516.50,0.725
517.00,0.736
517.50,0.747
518.00,0.758
518.50,0.768
519.00,0.779
519.50,0.789
520.00,0.798
520.50,0.808
521.00,0.817
521.50,0.825
522.00,0.833
522.50,0.840
523.00,0.847
523.50,0.854
524.00,0.859
524.50,0.864
525.00,0.869
525.50,0.874
526.00,0.877
526.50,0.880
527.00,0.883
527.50,0.885
528.00,0.887
528.50,0.888
529.00,0.888
529.50,0.889
530.00,0.888
530.50,0.888
531.00,0.887
531.50,0.886
532.00,0.884
532.50,0.882
533.00,0.881
533.50,0.879
534.00,0.877
534.50,0.874
535.00,0.872
535.50,0.870
536.00,0.868
536.50,0.865
537.00,0.863
537.50,0.862
538.00,0.860
538.50,0.860
539.00,0.859
539.50,0.858
540.00,0.858
540.50,0.859
541.00,0.860
541.50,0.861
542.00,0.863
542.50,0.866
543.00,0.869
543.50,0.873
544.00,0.877
544.50,0.882
545.00,0.888
545.50,0.895
546.00,0.902
546.50,0.910
547.00,0.918
547.50,0.927
548.00,0.937
548.50,0.947
549.00,0.959
549.50,0.971
550.00,0.983
550.50,0.996
551.00,1.009
551.50,1.023
552.00,1.038
552.50,1.052
553.00,1.067
553.50,1.082
554.00,1.097
554.50,1.112
555.00,1.127
555.50,1.142
556.00,1.158
556.50,1.174
557.00,1.188
557.50,1.203
558.00,1.218
558.50,1.232
559.00,1.247
559.50,1.261
560.00,1.275
560.50,1.288
561.00,1.300
561.50,1.313
562.00,1.324
562.50,1.334
563.00,1.344
563.50,1.353
564.00,1.362
564.50,1.369
565.00,1.377
565.50,1.382
566.00,1.386
566.50,1.389
567.00,1.393
567.50,1.394
568.00,1.394
568.50,1.393
569.00,1.390
569.50,1.386
570.00,1.381
570.50,1.374
571.00,1.367
571.50,1.358
572.00,1.348
572.50,1.338
573.00,1.324
573.50,1.311
574.00,1.296
574.50,1.280
575.00,1.263
575.50,1.245
576.00,1.226
576.50,1.208
577.00,1.187
577.50,1.166
578.00,1.145
578.50,1.121
579.00,1.097
579.50,1.072
580.00,1.047
580.50,1.021
581.00,0.995
581.50,0.968
582.00,0.942
582.50,0.916
583.00,0.888
583.50,0.862
584.00,0.833
584.50,0.806
585.00,0.778
585.50,0.749
586.00,0.722
586.50,0.694
587.00,0.668
587.50,0.641
588.00,0.615
588.50,0.590
589.00,0.565
589.50,0.541
590.00,0.516
590.50,0.493
591.00,0.469
591.50,0.447
592.00,0.425
592.50,0.404
593.00,0.384
593.50,0.364
594.00,0.345
594.50,0.327
595.00,0.310
595.50,0.293
596.00,0.277
596.50,0.262
597.00,0.247
597.50,0.233
598.00,0.220
598.50,0.207
599.00,0.194
599.50,0.182
600.00,0.171
600.50,0.160
601.00,0.151
601.50,0.141
602.00,0.132
602.50,0.124
603.00,0.116
603.50,0.108
604.00,0.101
604.50,0.094
605.00,0.087
605.50,0.082
606.00,0.076
606.50,0.071
607.00,0.066
607.50,0.061
608.00,0.057
608.50,0.053
609.00,0.049
609.50,0.046
610.00,0.042
610.50,0.039
611.00,0.037
611.50,0.035
612.00,0.032
612.50,0.030
613.00,0.028
613.50,0.026
614.00,0.024
614.50,0.023
615.00,0.021
615.50,0.020
616.00,0.018
616.50,0.017
617.00,0.016
617.50,0.015
618.00,0.014
618.50,0.013
619.00,0.013
619.50,0.012
620.00,0.011
620.50,0.010
621.00,0.010
621.50,0.010
622.00,0.009
622.50,0.009
623.00,0.008
623.50,0.008
624.00,0.007
624.50,0.007
625.00,0.007
625.50,0.006
626.00,0.006
626.50,0.006
627.00,0.006
627.50,0.006
628.00,0.005
628.50,0.005
629.00,0.004
629.50,0.004
630.00,0.005
630.50,0.004
631.00,0.004
631.50,0.004
632.00,0.004
632.50,0.004
633.00,0.004
633.50,0.004
634.00,0.004
634.50,0.004
635.00,0.004
635.50,0.003
636.00,0.003
636.50,0.004
637.00,0.004
637.50,0.004
638.00,0.003
638.50,0.004
639.00,0.004
639.50,0.003
640.00,0.003
640.50,0.003
641.00,0.003
641.50,0.003
642.00,0.003
642.50,0.003
643.00,0.003
643.50,0.003
644.00,0.002
644.50,0.003
645.00,0.003
645.50,0.003
646.00,0.003
646.50,0.003
647.00,0.003
647.50,0.003
648.00,0.003
648.50,0.002
649.00,0.003
649.50,0.003
650.00,0.003
650.50,0.003
651.00,0.003
651.50,0.003
652.00,0.002
652.50,0.003
653.00,0.003
653.50,0.003
654.00,0.003
654.50,0.003
655.00,0.003
655.50,0.002
656.00,0.003
656.50,0.003
657.00,0.003
657.50,0.002
658.00,0.002
658.50,0.003
659.00,0.003
659.50,0.003
660.00,0.002
660.50,0.002
661.00,0.002
661.50,0.002
662.00,0.003
662.50,0.002
663.00,0.003
663.50,0.003
664.00,0.002
664.50,0.003
665.00,0.003
665.50,0.003
666.00,0.002
666.50,0.003
667.00,0.002
667.50,0.003
668.00,0.003
668.50,0.002
669.00,0.002
669.50,0.002
670.00,0.003
670.50,0.003
671.00,0.002
671.50,0.003
672.00,0.003
672.50,0.003
673.00,0.003
673.50,0.003
674.00,0.003
674.50,0.002
675.00,0.003
675.50,0.003
676.00,0.003
676.50,0.003
677.00,0.003
677.50,0.003
678.00,0.003
678.50,0.003
679.00,0.003
679.50,0.003
680.00,0.003
680.50,0.003
681.00,0.003
681.50,0.002
682.00,0.002
682.50,0.003
683.00,0.003
683.50,0.003
684.00,0.003
684.50,0.003
685.00,0.003
685.50,0.002
686.00,0.002
686.50,0.003
687.00,0.003
687.50,0.003
688.00,0.003
688.50,0.003
689.00,0.002
689.50,0.003
690.00,0.002
690.50,0.002
691.00,0.002
691.50,0.003
692.00,0.003
692.50,0.003
693.00,0.003
693.50,0.003
694.00,0.003
694.50,0.003
695.00,0.003
695.50,0.003
696.00,0.003
696.50,0.003
697.00,0.003
697.50,0.003
698.00,0.003
698.50,0.003
699.00,0.003
699.50,0.004
700.00,0.003
700.50,0.003
701.00,0.004
701.50,0.003
702.00,0.003
702.50,0.003
703.00,0.003
703.50,0.003
704.00,0.003
704.50,0.003
705.00,0.004
705.50,0.003
706.00,0.003
706.50,0.003
707.00,0.003
707.50,0.004
708.00,0.003
708.50,0.003
709.00,0.003
709.50,0.003
710.00,0.003
710.50,0.003
711.00,0.003
711.50,0.003
712.00,0.003
712.50,0.003
713.00,0.003
713.50,0.003
714.00,0.003
714.50,0.003
715.00,0.003
715.50,0.003
716.00,0.002
716.50,0.003
717.00,0.003
717.50,0.003
718.00,0.003
718.50,0.003
719.00,0.003
719.50,0.003
720.00,0.003
720.50,0.003
721.00,0.004
721.50,0.004
722.00,0.003
722.50,0.003
723.00,0.003
723.50,0.003
724.00,0.003
724.50,0.003
725.00,0.003
725.50,0.003
726.00,0.003
726.50,0.004
727.00,0.003
727.50,0.003
728.00,0.003
728.50,0.003
729.00,0.004
729.50,0.003
730.00,0.003
730.50,0.004
731.00,0.003
731.50,0.004
732.00,0.003
732.50,0.003
733.00,0.003
733.50,0.003
734.00,0.003
734.50,0.003
735.00,0.003
735.50,0.003
736.00,0.004
736.50,0.003
737.00,0.003
737.50,0.003
738.00,0.004
738.50,0.003
739.00,0.003
739.50,0.003
740.00,0.003
740.50,0.003
741.00,0.003
741.50,0.003
742.00,0.003
742.50,0.003
743.00,0.003
743.50,0.003
744.00,0.003
744.50,0.003
745.00,0.003
745.50,0.003
746.00,0.003
746.50,0.003
747.00,0.003
747.50,0.003
748.00,0.003
748.50,0.003
749.00,0.003
749.50,0.003
750.00,0.003
750.50,0.003
751.00,0.004
751.50,0.003
752.00,0.004
752.50,0.003
753.00,0.003
753.50,0.003
754.00,0.003
754.50,0.003
755.00,0.003
755.50,0.003
756.00,0.003
756.50,0.003
757.00,0.003
757.50,0.004
758.00,0.003
758.50,0.003
759.00,0.003
759.50,0.003
760.00,0.003
760.50,0.003
761.00,0.003
761.50,0.003
762.00,0.003
762.50,0.003
763.00,0.003
763.50,0.003
764.00,0.003
764.50,0.003
765.00,0.003
765.50,0.003
766.00,0.003
766.50,0.003
767.00,0.003
767.50,0.002
768.00,0.003
768.50,0.003
769.00,0.004
769.50,0.003
770.00,0.004
770.50,0.003
771.00,0.003
771.50,0.003
772.00,0.003
772.50,0.003
773.00,0.003
773.50,0.003
774.00,0.003
774.50,0.003
775.00,0.002
775.50,0.003
776.00,0.003
776.50,0.003
777.00,0.003
777.50,0.003
778.00,0.003
778.50,0.002
779.00,0.002
779.50,0.003
780.00,0.002
780.50,0.003
781.00,0.002
781.50,0.003
782.00,0.002
782.50,0.003
783.00,0.003
783.50,0.003
784.00,0.003
784.50,0.003
785.00,0.003
785.50,0.003
786.00,0.003
786.50,0.003
787.00,0.003
787.50,0.003
788.00,0.003
788.50,0.003
789.00,0.003
789.50,0.003
790.00,0.003
790.50,0.003
791.00,0.003
791.50,0.003
792.00,0.002
792.50,0.002
793.00,0.003
793.50,0.003
794.00,0.003
794.50,0.003
795.00,0.002
795.50,0.003
796.00,0.002
796.50,0.002
797.00,0.002
797.50,0.002
798.00,0.003
798.50,0.003
799.00,0.003
799.50,0.003
800.00,0.003
